Temperature (K)	Field (T)	Angle (°)	Ic/w (A/cm)	Ic (A)	n	V0 (µV)	V1 (µV/A)	Hall field (T)	Hall angle (°)	Set temperature (K)	Set field (T)	Set angle (°)
50.01	2.000	0.00	513.69	205.48	18.77	-0.00055	0.00048	2.079	-0.48	50.00	2.000	0.00	
50.00	2.000	5.00	508.65	203.46	17.60	0.00329	0.00019	2.080	4.53	50.00	2.000	5.00	
50.00	2.000	10.00	508.89	203.56	18.27	-0.01414	0.00073	2.079	9.48	50.00	2.000	10.00	
49.99	2.000	15.00	506.25	202.50	18.42	-0.00813	0.00087	2.078	14.41	50.00	2.000	15.00	
50.00	2.000	20.00	499.81	199.92	17.39	0.05295	0.00068	2.076	19.33	50.00	2.000	20.00	
50.00	2.000	25.00	496.19	198.47	17.50	0.02919	0.00085	2.072	24.23	50.00	2.000	25.00	
50.00	2.000	30.00	490.78	196.31	17.16	0.04552	0.00076	2.066	29.11	50.00	2.000	30.00	
50.00	2.000	35.00	486.26	194.50	17.04	0.04840	0.00083	2.061	33.97	50.00	2.000	35.00	
50.00	2.000	40.00	481.50	192.60	16.92	0.04995	0.00088	2.055	38.85	50.00	2.000	40.00	
50.00	2.000	45.00	475.68	190.27	16.35	0.00259	0.00071	2.047	43.74	50.00	2.000	45.00	
50.00	2.000	50.00	470.43	188.17	16.04	0.00745	0.00068	2.038	48.65	50.00	2.000	50.00	
49.99	2.000	55.00	465.12	186.05	15.65	0.02923	0.00056	2.029	53.62	50.00	2.000	55.00	
50.00	2.000	60.00	459.37	183.75	15.25	0.01574	0.00049	2.020	58.60	50.00	2.000	60.00	
49.99	2.000	65.00	454.14	181.66	15.14	0.01934	0.00049	2.013	63.65	50.00	2.000	65.00	
50.00	2.000	70.00	443.16	177.27	13.82	0.07197	-0.00001	2.006	68.74	50.00	2.000	70.00	
50.00	2.000	75.00	432.40	172.96	13.07	0.05605	-0.00029	2.002	73.86	50.00	2.000	75.00	
50.00	2.000	78.00	424.90	169.96	12.48	0.06388	-0.00018	2.001	76.95	50.00	2.000	78.00	
50.00	2.000	81.00	416.14	166.46	11.30	0.08375	-0.00044	2.000	80.05	50.00	2.000	81.00	
50.00	2.000	84.00	414.59	165.84	9.96	0.05577	-0.00075	2.000	83.14	50.00	2.000	84.00	
50.00	2.000	86.00	426.88	170.75	9.00	0.10383	-0.00100	2.000	85.21	50.00	2.000	86.00	
50.00	1.999	88.00	468.52	187.41	8.53	0.08742	-0.00067	2.001	87.27	50.00	2.000	88.00	
49.99	2.000	90.00	521.33	208.53	8.65	-0.00116	-0.00051	2.001	89.34	50.00	2.000	90.00	
49.99	2.000	92.00	501.95	200.78	8.53	0.05598	-0.00055	2.002	91.39	50.00	2.000	92.00	
49.99	2.000	94.00	447.20	178.88	8.55	0.08261	-0.00099	2.003	93.44	50.00	2.000	94.00	
50.00	2.000	96.00	420.56	168.22	9.40	0.12620	-0.00105	2.004	95.47	50.00	2.000	96.00	
50.00	2.000	99.00	413.06	165.22	10.53	0.10075	-0.00138	2.006	98.50	50.00	2.000	99.00	
50.00	2.000	102.00	422.54	169.02	11.90	0.04158	-0.00090	2.009	101.55	50.00	2.000	102.00	
50.00	1.999	105.00	431.19	172.47	12.73	0.09924	-0.00101	2.010	104.52	50.00	2.000	105.00	
50.00	2.000	110.00	446.57	178.63	14.12	0.05620	-0.00058	2.011	109.46	50.00	2.000	110.00	
50.00	2.000	115.00	455.72	182.29	14.54	0.04804	-0.00072	2.008	114.36	50.00	2.000	115.00	
50.00	2.000	120.00	463.52	185.41	15.24	0.03839	-0.00061	2.005	119.27	50.00	2.000	120.00	
50.00	2.000	125.00	471.14	188.46	15.93	0.02175	-0.00027	2.001	124.18	50.00	2.000	125.00	
50.00	2.000	130.00	478.39	191.36	16.80	0.02284	0.00011	1.995	129.12	50.00	2.000	130.00	
50.00	2.000	135.00	482.03	192.81	16.52	0.04434	-0.00039	1.990	134.08	50.00	2.000	135.00	
50.00	2.000	140.00	489.31	195.72	17.16	-0.01427	-0.00013	1.984	139.08	50.00	2.000	140.00	
50.00	2.000	145.00	493.43	197.37	17.19	0.00579	-0.00010	1.978	144.07	50.00	2.000	145.00	
50.00	2.000	150.00	499.28	199.71	17.60	0.02755	0.00011	1.973	149.06	50.00	2.000	150.00	
50.00	2.000	155.00	504.41	201.76	17.91	-0.01993	0.00045	1.969	154.03	50.00	2.000	155.00	
49.99	2.000	160.00	508.78	203.51	18.16	0.03125	0.00025	1.966	158.98	50.00	2.000	160.00	
49.99	2.000	165.00	512.20	204.88	18.34	-0.04548	0.00026	1.963	163.96	50.00	2.000	165.00	
49.99	2.000	170.00	515.39	206.16	18.69	0.00468	0.00031	1.960	169.06	50.00	2.000	170.00	
49.99	2.000	175.00	517.74	207.09	18.93	-0.01737	0.00046	1.959	174.21	50.00	2.000	175.00	
49.99	2.000	180.00	515.15	206.06	18.25	-0.04147	0.00008	1.959	179.41	50.00	2.000	180.00	
49.99	2.000	185.00	512.59	205.04	17.63	0.09028	-0.00015	1.959	184.57	50.00	2.000	185.00	
49.99	2.000	190.00	516.21	206.48	19.89	-0.02529	0.00189	1.962	189.72	50.00	2.000	190.00	
50.01	2.000	195.00	503.58	201.43	17.35	0.03494	-0.00019	1.965	195.33	50.00	2.000	195.00	
50.01	2.000	200.00	497.89	199.16	17.44	0.01221	-0.00001	1.969	200.44	50.00	2.000	200.00	
50.00	2.000	205.00	491.55	196.62	17.23	0.01615	0.00016	1.974	205.51	50.00	2.000	205.00	
49.99	2.000	210.00	486.65	194.66	17.11	0.06317	0.00103	1.981	210.27	50.00	2.000	210.00	
49.99	2.000	215.00	482.87	193.15	17.50	0.00189	0.00161	1.987	215.26	50.00	2.000	215.00	
49.99	2.000	220.00	477.15	190.86	16.79	0.02287	0.00149	1.994	220.16	50.00	2.000	220.00	
50.01	2.000	225.00	470.34	188.14	16.39	0.03780	-0.00020	2.000	225.33	50.00	2.000	225.00	
49.99	2.000	230.00	460.22	184.09	14.58	0.15002	-0.00027	2.006	229.90	50.00	2.000	230.00	
49.99	2.000	235.00	463.44	185.38	15.91	0.01490	0.00095	2.011	234.75	50.00	2.000	235.00	
50.00	2.000	240.00	456.46	182.58	14.98	0.09376	-0.00052	2.013	239.83	50.00	2.000	240.00	
