Temperature (K)	Field (T)	Angle (°)	Ic/w (A/cm)	Ic (A)	n	V0 (µV)	V1 (µV/A)	Hall field (T)	Hall angle (°)	Set temperature (K)	Set field (T)	Set angle (°)
50.02	0.150	0.00	1146.52	458.61	20.61	0.00105	0.00047	0.155	0.04	50.00	0.150	0.00	
49.99	0.150	5.00	1135.45	454.18	19.12	0.01592	-0.00015	0.157	4.75	50.00	0.150	5.00	
49.98	0.150	10.00	1140.97	456.39	19.56	0.01817	0.00001	0.156	9.77	50.00	0.150	10.00	
49.99	0.150	15.00	1143.63	457.45	19.74	-0.00597	0.00002	0.157	14.84	50.00	0.150	15.00	
49.99	0.150	20.00	1147.46	458.98	19.83	0.01169	0.00006	0.156	19.74	50.00	0.150	20.00	
49.99	0.150	25.00	1152.94	461.17	19.89	-0.00799	0.00012	0.156	24.66	50.00	0.150	25.00	
49.99	0.150	30.00	1155.14	462.06	19.54	-0.00876	0.00010	0.156	29.51	50.00	0.150	30.00	
49.99	0.150	35.00	1160.41	464.16	19.48	0.01952	0.00013	0.154	34.25	50.00	0.150	35.00	
49.99	0.150	40.00	1166.58	466.63	19.69	-0.03550	0.00016	0.154	39.05	50.00	0.150	40.00	
49.99	0.150	45.00	1172.22	468.89	19.71	0.00070	0.00022	0.152	43.82	50.00	0.150	45.00	
49.99	0.150	50.00	1175.22	470.09	19.07	-0.02193	0.00017	0.151	48.66	50.00	0.150	50.00	
49.99	0.150	55.00	1179.93	471.97	18.90	-0.02352	0.00016	0.151	53.54	50.00	0.150	55.00	
50.00	0.150	60.00	1184.89	473.95	18.65	-0.02047	0.00018	0.149	58.48	50.00	0.150	60.00	
50.00	0.150	65.00	1191.01	476.40	18.63	-0.03470	0.00010	0.148	63.55	50.00	0.150	65.00	
49.98	0.150	70.00	1195.42	478.17	18.21	-0.02616	0.00008	0.148	68.71	50.00	0.150	70.00	
49.99	0.150	75.00	1196.89	478.76	17.68	-0.02544	0.00003	0.148	73.90	50.00	0.150	75.00	
49.99	0.151	78.00	1197.62	479.05	17.60	-0.03126	-0.00015	0.148	77.15	50.00	0.150	78.00	
49.99	0.150	81.00	1199.27	479.71	17.47	0.00851	-0.00021	0.147	80.34	50.00	0.150	81.00	
49.99	0.150	84.00	1202.40	480.96	17.50	0.02047	-0.00018	0.147	83.51	50.00	0.150	84.00	
49.99	0.150	86.00	1202.60	481.04	17.59	-0.03755	-0.00021	0.148	85.61	50.00	0.150	86.00	
49.99	0.150	88.00	1201.74	480.70	17.35	-0.00155	-0.00022	0.148	87.68	50.00	0.150	88.00	
49.99	0.151	90.00	1200.07	480.03	17.23	-0.01023	-0.00030	0.149	89.72	50.00	0.150	90.00	
49.99	0.150	92.00	1203.76	481.50	17.56	-0.03101	-0.00017	0.148	91.82	50.00	0.150	92.00	
49.99	0.150	94.00	1202.19	480.88	17.59	-0.01500	-0.00023	0.149	93.80	50.00	0.150	94.00	
49.99	0.150	96.00	1200.07	480.03	17.36	-0.03144	-0.00027	0.149	95.89	50.00	0.150	96.00	
49.99	0.150	99.00	1196.26	478.50	17.27	0.06666	-0.00038	0.149	98.84	50.00	0.150	99.00	
49.99	0.150	102.00	1198.44	479.38	17.79	-0.00687	-0.00027	0.150	101.86	50.00	0.150	102.00	
49.99	0.149	105.00	1194.41	477.76	17.54	0.07008	-0.00036	0.150	104.77	50.00	0.150	105.00	
50.00	0.150	110.00	1194.91	477.96	18.14	0.06976	-0.00024	0.151	109.66	50.00	0.150	110.00	
50.00	0.150	115.00	1189.29	475.72	17.97	0.00559	-0.00020	0.151	114.61	50.00	0.150	115.00	
49.99	0.150	120.00	1191.52	476.61	19.08	0.00368	-0.00011	0.151	119.54	50.00	0.150	120.00	
49.99	0.150	125.00	1181.47	472.59	18.46	0.01037	-0.00018	0.152	124.43	50.00	0.150	125.00	
50.00	0.150	130.00	1177.87	471.15	18.79	-0.00017	-0.00014	0.152	129.39	50.00	0.150	130.00	
49.99	0.150	135.00	1172.34	468.94	18.76	0.03265	-0.00026	0.152	134.34	50.00	0.150	135.00	
49.99	0.150	140.00	1176.68	470.67	20.24	-0.01962	-0.00004	0.152	139.33	50.00	0.150	140.00	
49.99	0.150	145.00	1167.17	466.87	19.58	0.05672	-0.00017	0.152	144.32	50.00	0.150	145.00	
49.99	0.150	150.00	1164.12	465.65	19.65	-0.03739	-0.00008	0.152	149.40	50.00	0.150	150.00	
49.99	0.150	155.00	1159.26	463.70	19.69	-0.00644	-0.00013	0.152	154.40	50.00	0.150	155.00	
49.99	0.150	160.00	1156.55	462.62	19.79	0.00274	-0.00010	0.153	159.29	50.00	0.150	160.00	
49.99	0.150	165.00	1150.84	460.33	19.55	-0.01121	-0.00002	0.153	164.21	50.00	0.150	165.00	
49.99	0.149	170.00	1147.98	459.19	19.74	0.05671	-0.00026	0.153	169.23	50.00	0.150	170.00	
49.99	0.150	175.00	1145.56	458.22	19.66	0.06119	-0.00009	0.153	174.28	50.00	0.150	175.00	
49.98	0.150	180.00	1140.71	456.28	19.18	-0.02835	-0.00011	0.153	179.38	50.00	0.150	180.00	
49.99	0.150	185.00	1139.65	455.86	19.12	0.00859	-0.00007	0.153	184.38	50.00	0.150	185.00	
49.99	0.150	190.00	1138.08	455.23	18.94	0.02048	-0.00021	0.153	189.42	50.00	0.150	190.00	
49.99	0.150	195.00	1138.49	455.40	18.87	0.00352	0.00007	0.154	194.52	50.00	0.150	195.00	
50.00	0.151	200.00	1139.19	455.68	18.87	-0.01327	0.00004	0.154	199.53	50.00	0.150	200.00	
50.00	0.150	205.00	1140.12	456.05	18.75	-0.01052	-0.00007	0.154	204.52	50.00	0.150	205.00	
50.00	0.150	210.00	1145.74	458.30	18.91	0.01208	0.00012	0.155	209.54	50.00	0.150	210.00	
49.98	0.150	215.00	1146.83	458.73	18.40	0.02754	0.00001	0.155	214.46	50.00	0.150	215.00	
49.99	0.150	220.00	1152.69	461.07	18.21	-0.02258	0.00005	0.155	219.22	50.00	0.150	220.00	
49.99	0.150	225.00	1161.57	464.63	18.39	-0.00574	0.00012	0.155	224.04	50.00	0.150	225.00	
50.00	0.150	230.00	1169.87	467.95	18.11	-0.01972	0.00019	0.155	228.88	50.00	0.150	230.00	
50.00	0.150	235.00	1180.57	472.23	18.07	-0.01936	0.00014	0.155	233.75	50.00	0.150	235.00	
49.98	0.150	240.00	1191.99	476.80	18.00	-0.01384	0.00016	0.155	238.53	50.00	0.150	240.00	
