Temperature (K)	Field (T)	Angle (°)	Ic/w (A/cm)	Ic (A)	n	V0 (µV)	V1 (µV/A)	Hall field (T)	Hall angle (°)	Set temperature (K)	Set field (T)	Set angle (°)
15.01	2.000	0.00	1979.26	791.70	29.91	-0.20310	0.00113	2.079	-0.18	15.00	2.000	0.00
15.01	2.000	5.00	1971.28	788.51	29.25	-0.13412	0.00085	2.080	4.80	15.00	2.000	5.00
15.01	2.000	10.00	1975.91	790.36	29.02	-0.06159	0.00109	2.080	9.73	15.00	2.000	10.00
15.01	2.000	15.00	1993.03	797.21	30.90	-0.16901	0.00150	2.078	14.63	15.00	2.000	15.00
15.01	2.000	20.00	2006.08	802.43	30.67	-0.21818	0.00169	2.076	19.47	15.00	2.000	20.00
15.01	2.000	25.00	2026.34	810.54	29.79	-0.18732	0.00172	2.073	24.32	15.00	2.000	25.00
15.01	2.000	30.00	2052.71	821.08	30.08	-0.17598	0.00183	2.067	29.16	15.00	2.000	30.00
15.01	2.000	35.00	2088.71	835.48	30.17	-0.21361	0.00182	2.060	33.99	15.00	2.000	35.00
15.01	2.000	40.00	2133.99	853.59	30.48	-0.24080	0.00183	2.052	38.83	15.00	2.000	40.00
15.01	2.000	45.00	2184.47	873.79	30.49	-0.17702	0.00174	2.042	43.68	15.00	2.000	45.00
15.01	2.000	50.00	2248.43	899.37	28.50	-0.19783	0.00155	2.030	48.56	15.00	2.000	50.00
15.01	2.000	55.00	2341.06	936.42	28.19	-0.19745	0.00145	2.019	53.49	15.00	2.000	55.00	Current limit exceeded.
15.01	2.000	60.00	2434.26	973.70	25.90	-0.17064	0.00132	2.009	58.47	15.00	2.000	60.00	Current limit exceeded.
15.01	2.000	65.00	--	--	--	--	--	2.000	63.50	15.00	2.000	65.00	Current limit exceeded.
--	--	--	--	--	--	--	--	--	--	15.00	2.000	70.00	Measurement skipped. (Current limit exceeded.)
--	--	--	--	--	--	--	--	--	--	15.00	2.000	75.00	Measurement skipped. (Current limit exceeded.)
--	--	--	--	--	--	--	--	--	--	15.00	2.000	78.00	Measurement skipped. (Current limit exceeded.)
--	--	--	--	--	--	--	--	--	--	15.00	2.000	81.00	Measurement skipped. (Current limit exceeded.)
--	--	--	--	--	--	--	--	--	--	15.00	2.000	84.00	Measurement skipped. (Current limit exceeded.)
--	--	--	--	--	--	--	--	--	--	15.00	2.000	86.00	Measurement skipped. (Current limit exceeded.)
--	--	--	--	--	--	--	--	--	--	15.00	2.000	88.00	Measurement skipped. (Current limit exceeded.)
--	--	--	--	--	--	--	--	--	--	15.00	2.000	90.00	Measurement skipped. (Current limit exceeded.)
--	--	--	--	--	--	--	--	--	--	15.00	2.000	92.00	Measurement skipped. (Current limit exceeded.)
--	--	--	--	--	--	--	--	--	--	15.00	2.000	94.00	Measurement skipped. (Current limit exceeded.)
--	--	--	--	--	--	--	--	--	--	15.00	2.000	96.00	Measurement skipped. (Current limit exceeded.)
--	--	--	--	--	--	--	--	--	--	15.00	2.000	99.00	Measurement skipped. (Current limit exceeded.)
--	--	--	--	--	--	--	--	--	--	15.00	2.000	102.00	Measurement skipped. (Current limit exceeded.)
--	--	--	--	--	--	--	--	--	--	15.00	2.000	105.00	Measurement skipped. (Current limit exceeded.)
--	--	--	--	--	--	--	--	--	--	15.00	2.000	110.00	Measurement skipped. (Current limit exceeded.)
15.01	2.000	115.00	--	--	--	--	--	1.997	114.40	15.00	2.000	115.00	Current limit exceeded.
15.01	2.000	120.00	2495.85	998.34	35.35	-0.18349	0.00008	1.998	119.46	15.00	2.000	120.00	Current limit exceeded.
15.01	2.000	125.00	2408.87	963.55	37.72	-0.24642	0.00025	1.996	124.43	15.00	2.000	125.00	Current limit exceeded.
15.01	2.000	130.00	2314.45	925.78	33.83	-0.22666	0.00032	1.993	129.41	15.00	2.000	130.00
15.01	2.000	135.00	2234.33	893.73	32.12	-0.30059	0.00044	1.989	134.41	15.00	2.000	135.00
15.01	2.000	140.00	2171.29	868.51	31.54	-0.32325	0.00061	1.983	139.41	15.00	2.000	140.00
15.01	2.000	145.00	2123.56	849.42	31.42	-0.33336	0.00081	1.978	144.43	15.00	2.000	145.00
15.01	2.000	150.00	2085.87	834.35	31.47	-0.40434	0.00104	1.974	149.47	15.00	2.000	150.00
15.01	2.000	155.00	2055.64	822.25	31.15	-0.45822	0.00123	1.971	154.48	15.00	2.000	155.00
15.01	2.000	160.00	2022.08	808.83	29.94	-0.36885	0.00124	1.968	159.49	15.00	2.000	160.00
15.01	2.000	165.00	2005.02	802.01	30.23	-0.44388	0.00139	1.966	164.55	15.00	2.000	165.00
15.01	2.000	170.00	1977.73	791.09	27.61	-0.27815	0.00113	1.964	169.61	15.00	2.000	170.00
15.01	2.000	175.00	1971.86	788.74	27.21	-0.31978	0.00131	1.963	174.76	15.00	2.000	175.00
15.01	2.000	180.00	1968.02	787.21	27.28	-0.32980	0.00138	1.962	179.96	15.00	2.000	180.00
15.01	2.000	185.00	1970.14	788.06	27.14	-0.33500	0.00173	1.963	185.12	15.00	2.000	185.00
15.01	2.000	190.00	1972.20	788.88	26.49	-0.40034	0.00215	1.966	190.27	15.00	2.000	190.00
15.01	2.000	195.00	2025.95	810.38	28.84	-0.62853	0.00277	1.969	195.41	15.00	2.000	195.00
15.01	2.000	200.00	2035.77	814.31	28.12	-0.59341	0.00281	1.974	200.48	15.00	2.000	200.00
15.01	2.000	205.00	2062.19	824.88	29.38	-0.58851	0.00296	1.979	205.52	15.00	2.000	205.00
15.01	2.000	210.00	2074.12	829.65	27.03	-0.43073	0.00274	1.985	210.54	15.00	2.000	210.00
15.01	2.000	215.00	2116.59	846.64	28.35	-0.43949	0.00266	1.992	215.51	15.00	2.000	215.00
15.01	2.000	220.00	2172.03	868.81	30.21	-0.46266	0.00264	1.998	220.40	15.00	2.000	220.00
15.01	2.000	225.00	2223.04	889.22	30.55	-0.40476	0.00263	2.004	225.28	15.00	2.000	225.00
15.01	2.000	230.00	2276.30	910.52	28.89	-0.43094	0.00254	2.010	230.14	15.00	2.000	230.00
15.01	2.000	235.00	2357.55	943.02	28.98	-0.42058	0.00244	2.014	234.96	15.00	2.000	235.00	Current limit exceeded.
15.01	2.000	240.00	2448.02	979.21	23.37	-0.41478	0.00222	2.016	239.77	15.00	2.000	240.00	Current limit exceeded.
