Temperature (K)	Field (T)	Angle (°)	Ic/w (A/cm)	Ic (A)	n	V0 (µV)	V1 (µV/A)	Hall field (T)	Hall angle (°)	Set temperature (K)	Set field (T)	Set angle (°)
39.99	5.000	0.00	462.89	185.16	18.76	-0.31559	0.01047	5.116	-0.50	40.00	5.000	0.00	
39.99	5.000	5.00	458.93	183.57	17.73	-0.17351	0.00997	5.115	4.40	40.00	5.000	5.00	
39.99	5.000	10.00	457.38	182.95	17.71	-0.12226	0.01036	5.114	9.32	40.00	5.000	10.00	
40.00	5.000	15.00	452.84	181.14	16.96	-0.05602	0.01144	5.111	14.23	40.00	5.000	15.00	
40.00	5.000	20.00	457.32	182.93	18.48	-0.21256	0.01455	5.106	19.13	40.00	5.000	20.00	
40.00	5.000	25.00	455.33	182.13	17.43	-0.27582	0.01598	5.100	24.05	40.00	5.000	25.00	
40.00	5.000	30.00	456.18	182.47	17.56	-0.42369	0.01705	5.092	28.94	40.00	5.000	30.00	
40.01	5.000	35.00	456.51	182.60	17.27	-0.32150	0.01686	5.084	33.84	40.00	5.000	35.00	
40.02	5.000	40.00	454.72	181.89	16.37	-0.38842	0.01644	5.074	38.74	40.00	5.000	40.00	
40.01	5.000	45.00	455.74	182.30	16.34	-0.38149	0.01558	5.063	43.66	40.00	5.000	45.00	
40.00	5.000	50.00	454.30	181.72	15.59	-0.30321	0.01352	5.051	48.60	40.00	5.000	50.00	
40.01	5.000	55.00	453.15	181.26	15.07	-0.29100	0.01083	5.040	53.55	40.00	5.000	55.00	
39.99	5.000	60.00	453.01	181.20	14.79	-0.14582	0.00811	5.028	58.53	40.00	5.000	60.00	
39.99	4.999	65.00	451.85	180.74	14.28	-0.07527	0.00556	5.016	63.54	40.00	5.000	65.00	
40.00	5.000	70.00	450.16	180.06	13.62	0.01331	0.00370	5.007	68.57	40.00	5.000	70.00	
40.00	5.000	75.00	444.74	177.90	12.03	0.02991	0.00170	4.999	73.61	40.00	5.000	75.00	
40.00	4.999	78.00	443.26	177.31	11.25	0.08850	0.00059	4.994	76.64	40.00	5.000	78.00	
40.00	5.000	81.00	445.46	178.19	10.07	0.10901	-0.00018	4.990	79.69	40.00	5.000	81.00	
40.00	4.999	84.00	464.71	185.88	8.80	0.14458	-0.00072	4.987	82.74	40.00	5.000	84.00	
40.00	5.000	86.00	511.32	204.53	8.05	0.14224	-0.00096	4.985	84.78	40.00	5.000	86.00	
40.00	5.000	88.00	637.58	255.03	7.92	0.16189	-0.00117	4.984	86.83	40.00	5.000	88.00	
39.99	5.000	90.00	876.62	350.65	9.87	0.18966	-0.00140	4.981	88.86	40.00	5.000	90.00	
39.99	5.000	92.00	828.21	331.28	10.01	0.13342	-0.00192	4.978	90.99	40.00	5.000	92.00	
39.99	5.000	94.00	613.54	245.42	8.47	0.16917	-0.00258	4.976	93.10	40.00	5.000	94.00	
39.99	5.000	96.00	504.33	201.73	8.43	0.16384	-0.00313	4.975	95.17	40.00	5.000	96.00	
40.00	5.000	99.00	456.96	182.79	9.72	0.17310	-0.00350	4.977	98.19	40.00	5.000	99.00	
40.00	5.000	102.00	448.64	179.45	10.92	0.14197	-0.00404	4.976	101.22	40.00	5.000	102.00	
40.00	5.000	105.00	451.94	180.78	12.36	0.14734	-0.00383	4.974	104.22	40.00	5.000	105.00	
40.00	5.000	110.00	459.97	183.99	14.55	0.12821	-0.00374	4.966	109.15	40.00	5.000	110.00	
40.00	5.000	115.00	463.72	185.49	15.73	0.13703	-0.00370	4.955	114.07	40.00	5.000	115.00	
39.99	5.000	120.00	466.36	186.54	16.62	0.05191	-0.00333	4.941	119.02	40.00	5.000	120.00	
40.00	5.000	125.00	468.28	187.31	17.43	0.02928	-0.00289	4.927	123.98	40.00	5.000	125.00	
40.00	5.000	130.00	468.08	187.23	17.81	-0.02044	-0.00165	4.913	128.97	40.00	5.000	130.00	
40.00	5.000	135.00	466.74	186.70	17.84	-0.03349	-0.00064	4.899	133.98	40.00	5.000	135.00	
40.00	5.000	140.00	467.15	186.86	18.64	-0.07169	0.00072	4.887	139.01	40.00	5.000	140.00	
39.99	5.000	145.00	465.86	186.34	18.68	-0.05302	0.00194	4.876	144.04	40.00	5.000	145.00	
40.00	5.000	150.00	464.92	185.97	18.60	-0.05965	0.00318	4.866	149.05	40.00	5.000	150.00	
40.00	5.000	155.00	463.82	185.53	18.29	0.00862	0.00316	4.858	154.02	40.00	5.000	155.00	
39.99	5.000	160.00	462.59	185.04	18.04	0.10913	0.00260	4.851	158.97	40.00	5.000	160.00	
39.99	5.000	165.00	463.70	185.48	19.29	-0.10113	0.00595	4.845	163.98	40.00	5.000	165.00	
39.99	5.000	170.00	456.88	182.75	16.81	-0.29967	0.00513	4.841	169.89	40.00	5.000	170.00	
40.01	5.000	175.00	446.37	178.55	13.87	-0.24159	0.00492	4.836	175.08	40.00	5.000	175.00	
40.00	5.000	180.00	461.75	184.70	17.78	-0.34475	0.00688	4.833	180.27	40.00	5.000	180.00	
40.02	5.000	185.00	456.18	182.47	16.62	-0.39090	0.00741	4.834	185.46	40.00	5.000	185.00	
40.00	5.000	190.00	460.57	184.23	19.10	-0.51066	0.01038	4.836	190.58	40.00	5.000	190.00	
40.01	5.000	195.00	454.57	181.83	17.87	-0.19744	0.00797	4.842	195.68	40.00	5.000	195.00	
40.00	5.000	200.00	463.26	185.30	24.19	-0.14899	0.00957	4.848	200.73	40.00	5.000	200.00	
40.00	5.000	205.00	454.90	181.96	19.10	0.17501	0.00734	4.857	205.78	40.00	5.000	205.00	
40.00	5.000	210.00	445.60	178.24	17.72	0.15989	0.00720	4.868	210.83	40.00	5.000	210.00	
40.00	5.000	215.00	442.82	177.13	14.77	-0.32879	0.01212	4.881	215.88	40.00	5.000	215.00	
40.00	5.000	220.00	446.39	178.56	16.37	0.01001	0.00538	4.895	220.92	40.00	5.000	220.00	
40.01	5.000	225.00	460.67	184.27	25.14	-0.10859	0.00597	4.910	225.87	40.00	5.000	225.00	
40.00	5.000	230.00	450.04	180.02	17.03	0.00559	0.00411	4.925	230.76	40.00	5.000	230.00	
40.01	5.000	235.00	451.52	180.61	16.94	-0.01518	0.00367	4.940	235.62	40.00	5.000	235.00	
40.02	5.000	240.00	445.13	178.05	14.55	0.05597	0.00199	4.954	240.44	40.00	5.000	240.00	
