Temperature (K)	Field (T)	Angle (°)	Ic/w (A/cm)	Ic (A)	n	V0 (µV)	V1 (µV/A)	Hall field (T)	Hall angle (°)	Set temperature (K)	Set field (T)	Set angle (°)
50.02	1.000	0.00	692.37	276.95	19.37	0.04521	0.00033	1.057	-0.25	50.00	1.000	0.00	
50.00	0.999	5.00	686.42	274.57	18.46	0.03383	-0.00026	1.057	4.76	50.00	1.000	5.00	
49.99	1.000	10.00	683.87	273.55	18.57	0.02039	0.00022	1.059	9.80	50.00	1.000	10.00	
49.99	1.000	15.00	683.01	273.21	19.37	-0.06236	0.00062	1.059	14.76	50.00	1.000	15.00	
50.00	1.000	20.00	677.43	270.97	18.86	-0.01383	0.00062	1.056	19.67	50.00	1.000	20.00	
50.00	0.999	25.00	671.84	268.73	18.43	-0.00572	0.00067	1.054	24.53	50.00	1.000	25.00	
50.00	1.000	30.00	665.09	266.04	17.84	-0.00327	0.00051	1.050	29.33	50.00	1.000	30.00	
50.00	0.999	35.00	660.05	264.02	17.73	0.00710	0.00038	1.044	34.10	50.00	1.000	35.00	
49.99	1.000	40.00	653.80	261.52	17.25	0.05831	0.00033	1.039	38.85	50.00	1.000	40.00	
49.99	1.000	45.00	647.69	259.08	16.72	0.03778	0.00034	1.032	43.63	50.00	1.000	45.00	
49.99	0.999	50.00	645.30	258.12	16.96	-0.00948	0.00040	1.024	48.41	50.00	1.000	50.00	
49.99	1.000	55.00	639.78	255.91	16.39	0.01071	0.00027	1.015	53.29	50.00	1.000	55.00	
49.99	1.000	60.00	634.39	253.76	15.55	0.04958	0.00025	1.007	58.24	50.00	1.000	60.00	
49.99	0.999	65.00	629.49	251.79	15.06	0.03767	0.00009	0.999	63.30	50.00	1.000	65.00	
49.99	1.000	70.00	622.83	249.13	14.16	0.03723	-0.00001	0.994	68.43	50.00	1.000	70.00	
50.00	1.000	75.00	615.84	246.34	13.28	0.05408	-0.00004	0.990	73.64	50.00	1.000	75.00	
49.99	0.999	78.00	611.21	244.49	12.51	0.06689	-0.00011	0.990	76.78	50.00	1.000	78.00	
50.00	1.000	81.00	609.62	243.85	11.60	0.05814	-0.00019	0.990	79.94	50.00	1.000	81.00	
50.00	1.000	84.00	617.66	247.06	10.77	0.06657	-0.00026	0.990	83.08	50.00	1.000	84.00	
50.00	0.999	86.00	634.42	253.77	10.31	0.04927	-0.00017	0.991	85.17	50.00	1.000	86.00	
49.99	1.000	88.00	662.24	264.90	10.24	0.03924	-0.00020	0.992	87.26	50.00	1.000	88.00	
50.00	1.000	90.00	686.11	274.44	10.59	0.01096	0.00014	0.993	89.32	50.00	1.000	90.00	
50.00	0.999	92.00	678.61	271.45	10.55	0.00870	0.00001	0.994	91.39	50.00	1.000	92.00	
49.99	1.000	94.00	650.88	260.35	10.37	0.04027	-0.00007	0.996	93.44	50.00	1.000	94.00	
50.00	1.000	96.00	626.98	250.79	10.53	0.01554	-0.00007	0.998	95.48	50.00	1.000	96.00	
50.00	1.001	99.00	610.78	244.31	11.29	0.03060	-0.00032	1.001	98.50	50.00	1.000	99.00	
49.99	1.000	102.00	612.77	245.11	12.44	0.04892	-0.00007	1.003	101.50	50.00	1.000	102.00	
50.00	0.999	105.00	616.42	246.57	13.12	0.03489	-0.00021	1.006	104.48	50.00	1.000	105.00	
50.00	1.000	110.00	627.15	250.86	14.38	0.04940	0.00004	1.010	109.39	50.00	1.000	110.00	
50.01	1.000	115.00	633.43	253.37	15.00	-0.00204	-0.00014	1.011	114.26	50.00	1.000	115.00	
49.99	1.001	120.00	638.36	255.35	15.48	0.07921	0.00010	1.012	119.15	50.00	1.000	120.00	
49.99	1.000	125.00	643.66	257.46	16.11	-0.09418	0.00009	1.012	124.01	50.00	1.000	125.00	
50.00	1.000	130.00	648.93	259.57	16.69	0.01537	0.00030	1.011	128.89	50.00	1.000	130.00	
50.00	1.000	135.00	654.87	261.95	17.47	-0.04723	0.00042	1.010	133.79	50.00	1.000	135.00	
49.99	1.000	140.00	655.31	262.13	16.82	0.03580	0.00015	1.008	138.77	50.00	1.000	140.00	
50.00	1.000	145.00	662.98	265.19	17.62	-0.07951	0.00051	1.005	143.75	50.00	1.000	145.00	
49.99	1.001	150.00	671.49	268.59	18.66	0.03678	0.00054	1.001	148.76	50.00	1.000	150.00	
50.00	1.000	155.00	672.60	269.04	18.07	-0.00778	0.00050	0.999	153.76	50.00	1.000	155.00	
49.99	1.000	160.00	679.92	271.97	19.05	-0.01683	0.00054	0.998	158.77	50.00	1.000	160.00	
49.99	1.000	165.00	684.38	273.75	19.40	-0.03265	0.00062	0.996	163.86	50.00	1.000	165.00	
49.99	1.000	170.00	686.63	274.65	19.60	-0.00507	0.00056	0.995	169.01	50.00	1.000	170.00	
49.99	1.000	175.00	686.39	274.55	19.15	-0.06596	0.00035	0.995	174.22	50.00	1.000	175.00	
49.99	1.000	180.00	686.18	274.47	19.23	-0.05906	0.00025	0.995	179.42	50.00	1.000	180.00	
49.99	0.999	185.00	686.85	274.74	19.70	-0.02841	0.00017	0.996	184.63	50.00	1.000	185.00	
49.99	0.999	190.00	681.62	272.65	19.15	-0.01706	0.00053	0.998	189.83	50.00	1.000	190.00	
49.99	1.000	195.00	674.96	269.98	18.76	0.02941	0.00055	1.000	195.03	50.00	1.000	195.00	
49.99	1.000	200.00	673.51	269.40	19.87	-0.06437	0.00125	1.004	200.15	50.00	1.000	200.00	
49.99	1.000	205.00	664.87	265.95	19.08	-0.08542	0.00130	1.008	205.27	50.00	1.000	205.00	
49.99	1.000	210.00	656.68	262.67	18.50	0.01904	0.00060	1.012	210.32	50.00	1.000	210.00	
49.99	1.001	215.00	652.47	260.99	18.30	-0.03029	0.00093	1.015	215.28	50.00	1.000	215.00	
49.99	1.001	220.00	647.32	258.93	17.81	-0.00492	0.00080	1.019	220.10	50.00	1.000	220.00	
49.99	1.001	225.00	641.71	256.68	17.21	-0.00617	0.00065	1.022	224.86	50.00	1.000	225.00	
49.99	1.000	230.00	638.13	255.25	16.57	-0.03748	0.00076	1.023	229.66	50.00	1.000	230.00	
49.99	1.001	235.00	633.07	253.23	15.84	0.15018	-0.00016	1.024	234.44	50.00	1.000	235.00	
50.00	1.000	240.00	631.67	252.67	15.45	0.02271	0.00027	1.023	239.21	50.00	1.000	240.00	
