Temperature (K)	Field (T)	Angle (°)	Ic/w (A/cm)	Ic (A)	n	V0 (µV)	V1 (µV/A)	Hall field (T)	Hall angle (°)	Set temperature (K)	Set field (T)	Set angle (°)
64.98	0.700	0.00	363.41	145.36	18.01	0.02515	0.00051	0.743	0.01	65.00	0.700	0.00	
64.99	0.700	5.00	361.17	144.47	17.55	0.04271	-0.00013	0.744	5.04	65.00	0.700	5.00	
65.00	0.700	10.00	357.22	142.89	17.50	-0.06610	0.00082	0.743	10.02	65.00	0.700	10.00	
65.00	0.700	15.00	354.54	141.81	17.42	0.01683	0.00041	0.743	14.99	65.00	0.700	15.00	
64.98	0.700	20.00	354.44	141.78	17.52	0.02401	0.00071	0.742	19.92	65.00	0.700	20.00	
65.00	0.700	25.00	351.41	140.56	17.01	0.04687	0.00036	0.740	24.81	65.00	0.700	25.00	
65.00	0.700	30.00	348.51	139.40	17.10	0.02232	0.00037	0.738	29.62	65.00	0.700	30.00	
65.00	0.700	35.00	345.34	138.14	16.78	0.04759	0.00031	0.735	34.40	65.00	0.700	35.00	
65.00	0.700	40.00	343.06	137.22	16.98	0.02132	0.00068	0.731	39.18	65.00	0.700	40.00	
65.00	0.700	45.00	340.18	136.07	16.69	0.02958	0.00029	0.726	43.97	65.00	0.700	45.00	
64.99	0.700	50.00	336.99	134.80	16.25	0.02944	0.00019	0.721	48.78	65.00	0.700	50.00	
65.01	0.700	55.00	335.52	134.21	16.30	-0.00056	0.00011	0.714	53.65	65.00	0.700	55.00	
65.01	0.700	60.00	334.12	133.65	16.49	0.02947	0.00038	0.709	58.59	65.00	0.700	60.00	
65.00	0.700	65.00	330.50	132.20	16.07	0.01968	-0.00006	0.705	63.64	65.00	0.700	65.00	
65.01	0.700	70.00	324.67	129.87	16.04	0.04814	0.00008	0.701	68.74	65.00	0.700	70.00	
65.00	0.700	75.00	318.46	127.38	15.58	0.06620	-0.00025	0.699	73.93	65.00	0.700	75.00	
65.00	0.700	78.00	313.81	125.52	15.40	0.01215	-0.00006	0.699	77.06	65.00	0.700	78.00	
65.00	0.700	81.00	311.51	124.61	15.21	0.06231	-0.00032	0.698	80.20	65.00	0.700	81.00	
65.01	0.700	84.00	307.36	122.95	14.71	0.04811	-0.00014	0.699	83.34	65.00	0.700	84.00	
65.00	0.700	86.00	307.79	123.12	14.64	0.05921	-0.00016	0.700	85.43	65.00	0.700	86.00	
65.00	0.700	88.00	310.92	124.37	14.41	0.05013	-0.00050	0.701	87.50	65.00	0.700	88.00	
64.99	0.700	90.00	315.36	126.15	14.78	0.07921	-0.00056	0.702	89.56	65.00	0.700	90.00	
65.01	0.700	92.00	312.56	125.03	14.57	0.04383	-0.00026	0.703	91.61	65.00	0.700	92.00	
65.00	0.700	94.00	308.09	123.24	14.63	0.05445	-0.00022	0.704	93.65	65.00	0.700	94.00	
65.00	0.699	96.00	306.29	122.52	14.62	0.10717	-0.00048	0.706	95.68	65.00	0.700	96.00	
65.00	0.700	99.00	311.33	124.53	15.32	0.00963	0.00025	0.708	98.69	65.00	0.700	99.00	
65.00	0.700	102.00	316.53	126.61	15.44	-0.03822	0.00004	0.710	101.70	65.00	0.700	102.00	
65.00	0.700	105.00	322.32	128.93	15.66	0.05835	-0.00038	0.712	104.67	65.00	0.700	105.00	
65.00	0.701	110.00	329.52	131.81	15.87	0.00472	-0.00038	0.714	109.56	65.00	0.700	110.00	
65.00	0.699	115.00	335.10	134.04	16.13	0.00156	0.00032	0.716	114.43	65.00	0.700	115.00	
64.99	0.700	120.00	338.79	135.52	16.45	0.01423	0.00012	0.717	119.29	65.00	0.700	120.00	
65.00	0.700	125.00	342.05	136.82	16.71	-0.00227	0.00033	0.717	124.15	65.00	0.700	125.00	
65.00	0.700	130.00	341.86	136.75	16.69	0.01211	0.00032	0.716	129.04	65.00	0.700	130.00	
64.99	0.700	135.00	344.87	137.95	16.91	0.05714	0.00045	0.715	133.97	65.00	0.700	135.00	
65.00	0.700	140.00	347.51	139.01	16.89	0.01569	0.00008	0.712	138.93	65.00	0.700	140.00	
65.00	0.699	145.00	353.11	141.24	17.18	0.01060	0.00032	0.710	143.97	65.00	0.700	145.00	
65.00	0.700	150.00	356.76	142.70	17.50	0.01818	0.00046	0.708	148.99	65.00	0.700	150.00	
65.00	0.700	155.00	358.48	143.39	17.13	0.04587	0.00011	0.707	154.01	65.00	0.700	155.00	
65.00	0.700	160.00	361.77	144.71	17.36	0.03304	0.00029	0.705	159.04	65.00	0.700	160.00	
65.00	0.700	165.00	360.47	144.19	17.70	0.01205	0.00073	0.704	164.11	65.00	0.700	165.00	
65.00	0.700	170.00	361.59	144.64	17.50	0.01746	0.00046	0.703	169.23	65.00	0.700	170.00	
65.00	0.699	175.00	362.38	144.95	17.57	-0.03066	0.00006	0.702	174.42	65.00	0.700	175.00	
65.00	0.700	180.00	365.42	146.17	17.40	0.03039	-0.00005	0.703	179.63	65.00	0.700	180.00	
65.00	0.700	185.00	363.32	145.33	17.09	0.04891	-0.00017	0.703	184.80	65.00	0.700	185.00	
65.00	0.700	190.00	368.54	147.41	20.33	-0.08944	0.00133	0.704	189.99	65.00	0.700	190.00	
65.00	0.700	195.00	361.50	144.60	17.53	0.00481	0.00058	0.706	195.20	65.00	0.700	195.00	
65.00	0.699	200.00	357.61	143.04	17.52	0.04055	0.00061	0.708	200.32	65.00	0.700	200.00	
65.00	0.700	205.00	353.34	141.33	17.12	-0.01140	0.00038	0.710	205.41	65.00	0.700	205.00	
64.99	0.700	210.00	351.01	140.40	17.42	0.02571	0.00063	0.713	210.46	65.00	0.700	210.00	
65.00	0.700	215.00	348.15	139.26	17.18	0.00039	0.00042	0.715	215.42	65.00	0.700	215.00	
65.00	0.701	220.00	345.39	138.16	16.81	0.01805	0.00027	0.717	220.26	65.00	0.700	220.00	
65.00	0.700	225.00	343.46	137.39	16.60	0.03741	0.00018	0.718	225.05	65.00	0.700	225.00	
64.99	0.700	230.00	342.86	137.14	16.92	0.04581	0.00037	0.719	229.86	65.00	0.700	230.00	
64.99	0.700	235.00	342.47	136.99	17.00	0.01795	0.00069	0.719	234.64	65.00	0.700	235.00	
65.00	0.700	240.00	340.00	136.00	17.00	0.00929	0.00038	0.718	239.48	65.00	0.700	240.00	
