Temperature (K)	Field (T)	Angle (°)	Ic/w (A/cm)	Ic (A)	n	V0 (µV)	V1 (µV/A)	Hall field (T)	Hall angle (°)	Set temperature (K)	Set field (T)	Set angle (°)
24.99	1.000	0.00	1763.07	705.23	22.42	-0.14250	0.00070	1.059	-0.11	25.00	1.000	0.00	
25.01	1.000	5.00	1746.51	698.60	20.89	0.00276	0.00007	1.061	4.94	25.00	1.000	5.00	
25.00	1.000	10.00	1750.60	700.24	20.72	-0.01998	0.00022	1.061	9.93	25.00	1.000	10.00	
25.01	1.000	15.00	1760.83	704.33	20.96	-0.04523	0.00033	1.060	14.89	25.00	1.000	15.00	
25.00	1.000	20.00	1769.74	707.90	20.99	-0.12577	0.00052	1.059	19.75	25.00	1.000	20.00	
24.99	1.000	25.00	1784.43	713.77	21.16	-0.13417	0.00065	1.057	24.59	25.00	1.000	25.00	
24.99	1.000	30.00	1804.11	721.64	21.60	-0.17348	0.00081	1.053	29.36	25.00	1.000	30.00	
25.00	1.000	35.00	1825.21	730.08	21.38	-0.13220	0.00085	1.046	34.07	25.00	1.000	35.00	
24.99	1.000	40.00	1852.58	741.03	21.31	-0.17902	0.00089	1.037	38.75	25.00	1.000	40.00	
24.99	1.000	45.00	1885.56	754.22	21.18	-0.14262	0.00086	1.027	43.46	25.00	1.000	45.00	
25.00	1.000	50.00	1929.26	771.70	21.14	-0.15298	0.00081	1.014	48.20	25.00	1.000	50.00	
24.99	1.000	55.00	1977.61	791.04	20.91	-0.17397	0.00074	1.004	53.07	25.00	1.000	55.00	
24.99	1.000	60.00	2036.82	814.73	20.46	-0.15783	0.00065	0.991	58.06	25.00	1.000	60.00	
25.00	1.000	65.00	2114.23	845.69	20.41	-0.17523	0.00060	0.982	63.15	25.00	1.000	65.00	
25.00	1.000	70.00	2216.68	886.67	20.57	-0.20237	0.00055	0.975	68.33	25.00	1.000	70.00	
25.00	1.000	75.00	--	--	--	--	--	0.968	73.60	25.00	1.000	75.00	Current limit exceeded.
25.00	1.000	78.00	--	--	--	--	--	0.967	76.88	25.00	1.000	78.00	Current limit exceeded.
25.00	1.000	81.00	--	--	--	--	--	0.966	80.04	25.00	1.000	81.00	Current limit exceeded.
--	--	--	--	--	--	--	--	--	--	25.00	1.000	84.00	Measurement skipped. (Current limit exceeded.)
--	--	--	--	--	--	--	--	--	--	25.00	1.000	86.00	Measurement skipped. (Current limit exceeded.)
--	--	--	--	--	--	--	--	--	--	25.00	1.000	88.00	Measurement skipped. (Current limit exceeded.)
--	--	--	--	--	--	--	--	--	--	25.00	1.000	90.00	Measurement skipped. (Current limit exceeded.)
--	--	--	--	--	--	--	--	--	--	25.00	1.000	92.00	Measurement skipped. (Current limit exceeded.)
--	--	--	--	--	--	--	--	--	--	25.00	1.000	94.00	Measurement skipped. (Current limit exceeded.)
--	--	--	--	--	--	--	--	--	--	25.00	1.000	96.00	Measurement skipped. (Current limit exceeded.)
--	--	--	--	--	--	--	--	--	--	25.00	1.000	99.00	Measurement skipped. (Current limit exceeded.)
25.00	1.000	102.00	--	--	--	--	--	0.980	101.42	25.00	1.000	102.00	Current limit exceeded.
25.02	1.000	105.00	--	--	--	--	--	0.985	104.67	25.00	1.000	105.00	Current limit exceeded.
25.00	1.000	110.00	2235.47	894.19	21.11	-0.19997	0.00037	0.993	109.55	25.00	1.000	110.00	
25.00	1.000	115.00	2140.03	856.01	20.89	-0.18965	0.00042	0.997	114.49	25.00	1.000	115.00	
25.00	1.000	120.00	2070.69	828.28	21.31	-0.21247	0.00046	1.000	119.39	25.00	1.000	120.00	
25.00	1.000	125.00	2002.74	801.10	20.91	-0.13700	0.00045	1.003	124.29	25.00	1.000	125.00	
25.00	1.000	130.00	1951.08	780.43	21.18	-0.20366	0.00048	1.004	129.22	25.00	1.000	130.00	
25.00	1.000	135.00	1910.10	764.04	21.46	-0.23029	0.00055	1.004	134.17	25.00	1.000	135.00	
25.00	1.000	140.00	1870.85	748.34	20.52	-0.19834	0.00046	1.003	139.13	25.00	1.000	140.00	
25.00	1.000	145.00	1852.15	740.86	21.23	-0.21926	0.00046	1.000	144.15	25.00	1.000	145.00	
25.00	1.000	150.00	1826.70	730.68	21.14	-0.19025	0.00043	0.998	149.20	25.00	1.000	150.00	
25.00	1.000	155.00	1810.32	724.13	21.33	-0.12803	0.00044	0.998	154.24	25.00	1.000	155.00	
25.00	1.000	160.00	1791.10	716.44	20.97	-0.08867	0.00026	0.997	159.20	25.00	1.000	160.00	
25.00	1.000	165.00	1781.59	712.63	20.99	-0.12472	0.00021	0.996	164.30	25.00	1.000	165.00	
24.99	1.000	170.00	1776.11	710.44	21.15	-0.01668	0.00012	0.996	169.41	25.00	1.000	170.00	
25.00	1.000	175.00	1765.98	706.39	20.72	-0.00438	-0.00001	0.996	174.62	25.00	1.000	175.00	
25.00	1.000	180.00	1762.60	705.04	20.40	0.00629	0.00001	0.996	179.88	25.00	1.000	180.00	
25.00	1.000	185.00	1765.97	706.39	20.79	-0.03374	0.00017	0.997	185.07	25.00	1.000	185.00	
25.00	1.000	190.00	1766.42	706.57	20.50	-0.06474	0.00018	0.999	190.26	25.00	1.000	190.00	
25.00	1.000	195.00	1774.33	709.73	20.71	-0.08543	0.00042	1.002	195.47	25.00	1.000	195.00	
24.99	1.000	200.00	1788.11	715.25	21.10	-0.18779	0.00061	1.005	200.58	25.00	1.000	200.00	
25.00	1.000	205.00	1798.84	719.54	21.04	-0.14998	0.00072	1.009	205.64	25.00	1.000	205.00	
24.99	1.000	210.00	1817.65	727.06	21.24	-0.21616	0.00094	1.013	210.65	25.00	1.000	210.00	
25.00	1.000	215.00	1841.79	736.72	21.62	-0.23883	0.00102	1.017	215.57	25.00	1.000	215.00	
25.00	1.000	220.00	1867.52	747.01	21.47	-0.25032	0.00109	1.021	220.38	25.00	1.000	220.00	
25.00	1.000	225.00	1898.37	759.35	21.00	-0.27326	0.00111	1.023	225.15	25.00	1.000	225.00	
25.00	1.000	230.00	1937.24	774.89	20.98	-0.27485	0.00114	1.025	229.91	25.00	1.000	230.00	
25.00	1.000	235.00	1989.96	795.99	21.19	-0.27281	0.00114	1.025	234.66	25.00	1.000	235.00	
25.00	1.000	240.00	2048.84	819.54	20.76	-0.27449	0.00111	1.024	239.44	25.00	1.000	240.00	
