Temperature (K)	Field (T)	Angle (°)	Ic/w (A/cm)	Ic (A)	n	V0 (µV)	V1 (µV/A)	Hall field (T)	Hall angle (°)	Set temperature (K)	Set field (T)	Set angle (°)
55.00	0.700	0.00	621.93	248.77	19.58	-0.01808	0.00063	0.742	-0.04	55.00	0.700	0.00	
55.00	0.700	5.00	617.86	247.15	19.10	-0.00205	-0.00008	0.743	4.99	55.00	0.700	5.00	
55.00	0.700	10.00	616.27	246.51	19.03	-0.00115	0.00027	0.743	10.01	55.00	0.700	10.00	
54.99	0.700	15.00	612.88	245.15	18.96	-0.06406	0.00053	0.743	14.93	55.00	0.700	15.00	
55.01	0.700	20.00	609.96	243.99	19.11	-0.01960	0.00061	0.741	19.88	55.00	0.700	20.00	
55.01	0.700	25.00	605.68	242.27	18.88	-0.01291	0.00069	0.740	24.73	55.00	0.700	25.00	
55.00	0.700	30.00	601.25	240.50	18.66	0.02131	0.00052	0.736	29.53	55.00	0.700	30.00	
55.00	0.700	35.00	596.95	238.78	18.65	-0.01124	0.00059	0.733	34.30	55.00	0.700	35.00	
54.99	0.700	40.00	591.87	236.75	18.15	0.00436	0.00064	0.729	39.07	55.00	0.700	40.00	
55.00	0.700	45.00	586.87	234.75	17.49	-0.02721	0.00052	0.724	43.85	55.00	0.700	45.00	
55.00	0.700	50.00	582.24	232.90	17.02	0.01466	0.00027	0.719	48.66	55.00	0.700	50.00	
55.00	0.700	55.00	578.73	231.49	16.63	0.05684	0.00017	0.712	53.55	55.00	0.700	55.00	
55.00	0.700	60.00	575.70	230.28	16.55	0.02287	0.00028	0.708	58.50	55.00	0.700	60.00	
55.00	0.700	65.00	571.73	228.69	16.02	0.02564	0.00021	0.703	63.56	55.00	0.700	65.00	
55.01	0.700	70.00	564.88	225.95	15.19	0.05622	0.00003	0.699	68.66	55.00	0.700	70.00	
55.00	0.699	75.00	556.33	222.53	14.39	0.02988	-0.00003	0.696	73.90	55.00	0.700	75.00	
55.00	0.700	78.00	552.37	220.95	14.13	0.03711	0.00019	0.697	77.01	55.00	0.700	78.00	
55.00	0.700	81.00	547.07	218.83	13.13	0.08128	-0.00015	0.696	80.18	55.00	0.700	81.00	
55.00	0.700	84.00	547.23	218.89	12.27	0.03213	-0.00006	0.697	83.31	55.00	0.700	84.00	
54.98	0.700	86.00	552.80	221.12	11.79	0.01204	-0.00010	0.698	85.40	55.00	0.700	86.00	
55.00	0.700	88.00	561.07	224.43	11.47	0.04491	-0.00011	0.698	87.49	55.00	0.700	88.00	
54.99	0.700	90.00	567.64	227.06	11.61	0.04984	-0.00008	0.699	89.53	55.00	0.700	90.00	
55.00	0.700	92.00	563.64	225.46	11.56	0.05583	0.00003	0.700	91.62	55.00	0.700	92.00	
55.00	0.700	94.00	554.53	221.81	11.75	0.03073	-0.00015	0.702	93.64	55.00	0.700	94.00	
55.00	0.700	96.00	547.52	219.01	12.08	0.06882	-0.00021	0.703	95.72	55.00	0.700	96.00	
54.98	0.700	99.00	547.19	218.87	13.14	0.02919	-0.00004	0.706	98.70	55.00	0.700	99.00	
55.00	0.700	102.00	552.46	220.99	13.95	-0.00269	-0.00001	0.708	101.71	55.00	0.700	102.00	
55.00	0.700	105.00	557.46	222.99	14.26	0.03232	-0.00010	0.710	104.66	55.00	0.700	105.00	
55.00	0.700	110.00	569.44	227.78	15.39	0.02809	-0.00004	0.711	109.60	55.00	0.700	110.00	
55.00	0.700	115.00	577.12	230.85	15.84	0.05009	-0.00006	0.713	114.47	55.00	0.700	115.00	
54.99	0.700	120.00	582.56	233.03	16.34	0.03529	-0.00005	0.714	119.30	55.00	0.700	120.00	
54.99	0.700	125.00	589.83	235.93	17.20	-0.01784	0.00030	0.713	124.18	55.00	0.700	125.00	
54.99	0.700	130.00	594.17	237.67	17.39	-0.06313	0.00040	0.712	129.09	55.00	0.700	130.00	
55.01	0.700	135.00	595.68	238.27	17.30	0.12329	0.00034	0.711	134.04	55.00	0.700	135.00	
54.98	0.700	140.00	602.11	240.84	18.04	0.05565	0.00038	0.710	139.02	55.00	0.700	140.00	
54.98	0.701	145.00	608.16	243.26	18.83	-0.05895	0.00079	0.708	144.06	55.00	0.700	145.00	
55.00	0.700	150.00	611.29	244.52	18.42	-0.05130	0.00080	0.706	149.12	55.00	0.700	150.00	
55.00	0.700	155.00	615.29	246.12	18.83	-0.00873	0.00062	0.706	154.15	55.00	0.700	155.00	
55.00	0.701	160.00	618.81	247.53	19.04	-0.03972	0.00057	0.705	159.18	55.00	0.700	160.00	
55.00	0.700	165.00	623.32	249.33	19.39	-0.05907	0.00043	0.704	164.25	55.00	0.700	165.00	
55.00	0.700	170.00	624.53	249.81	19.14	-0.05515	0.00026	0.703	169.41	55.00	0.700	170.00	
55.00	0.700	175.00	623.45	249.38	18.72	-0.03296	0.00014	0.703	174.55	55.00	0.700	175.00	
55.00	0.700	180.00	625.23	250.09	19.09	0.00759	0.00004	0.702	179.78	55.00	0.700	180.00	
55.00	0.700	185.00	622.98	249.19	18.91	0.00771	-0.00005	0.703	184.93	55.00	0.700	185.00	
55.00	0.700	190.00	619.97	247.99	18.87	0.04483	0.00016	0.704	190.15	55.00	0.700	190.00	
55.00	0.700	195.00	618.45	247.38	19.47	-0.04551	0.00090	0.706	195.31	55.00	0.700	195.00	
55.00	0.700	200.00	612.81	245.12	19.43	-0.08553	0.00078	0.708	200.43	55.00	0.700	200.00	
54.99	0.700	205.00	607.19	242.88	18.93	-0.06255	0.00099	0.711	205.48	55.00	0.700	205.00	
55.01	0.700	210.00	600.84	240.34	18.26	-0.03633	0.00078	0.713	210.51	55.00	0.700	210.00	
55.00	0.700	215.00	596.71	238.68	18.06	-0.00958	0.00054	0.715	215.43	55.00	0.700	215.00	
55.00	0.700	220.00	594.08	237.63	18.05	-0.02306	0.00061	0.717	220.30	55.00	0.700	220.00	
55.00	0.700	225.00	592.42	236.97	17.98	-0.00557	0.00068	0.719	225.02	55.00	0.700	225.00	
55.00	0.700	230.00	588.03	235.21	17.26	-0.00298	0.00041	0.720	229.88	55.00	0.700	230.00	
55.00	0.701	235.00	586.67	234.67	17.01	-0.00358	0.00042	0.720	234.67	55.00	0.700	235.00	
55.01	0.700	240.00	585.61	234.24	16.71	0.02295	0.00042	0.719	239.48	55.00	0.700	240.00	
