Temperature (K)	Field (T)	Angle (°)	Ic/w (A/cm)	Ic (A)	n	V0 (µV)	V1 (µV/A)	Hall field (T)	Hall angle (°)	Set temperature (K)	Set field (T)	Set angle (°)
35.00	0.700	0.00	1358.85	543.54	19.77	-0.05597	0.00053	0.743	-0.09	35.00	0.700	0.00	
35.00	0.700	5.00	1345.12	538.05	18.57	-0.01625	-0.00007	0.745	4.96	35.00	0.700	5.00	
35.00	0.700	10.00	1345.52	538.21	18.62	-0.04198	0.00018	0.745	9.94	35.00	0.700	10.00	
34.99	0.699	15.00	1347.04	538.82	18.63	-0.03037	0.00030	0.745	14.92	35.00	0.700	15.00	
35.01	0.700	20.00	1351.80	540.72	18.46	-0.03361	0.00036	0.744	19.79	35.00	0.700	20.00	
35.02	0.700	25.00	1358.55	543.42	18.70	-0.08777	0.00055	0.742	24.64	35.00	0.700	25.00	
35.01	0.701	30.00	1362.11	544.84	18.49	-0.10265	0.00065	0.739	29.41	35.00	0.700	30.00	
35.00	0.700	35.00	1371.56	548.63	18.74	-0.07883	0.00071	0.733	34.15	35.00	0.700	35.00	
35.00	0.700	40.00	1378.65	551.46	18.15	-0.12176	0.00068	0.727	38.87	35.00	0.700	40.00	
35.00	0.700	45.00	1394.85	557.94	17.99	-0.11891	0.00068	0.721	43.62	35.00	0.700	45.00	
34.99	0.700	50.00	1408.01	563.20	17.34	-0.08866	0.00061	0.715	48.42	35.00	0.700	50.00	
34.99	0.700	55.00	1428.32	571.33	17.08	-0.06908	0.00056	0.708	53.30	35.00	0.700	55.00	
34.99	0.700	60.00	1453.36	581.34	16.66	-0.06621	0.00053	0.702	58.26	35.00	0.700	60.00	
35.01	0.700	65.00	1489.89	595.96	15.87	-0.14247	0.00040	0.695	63.31	35.00	0.700	65.00	
35.00	0.700	70.00	1537.21	614.88	15.84	-0.13340	0.00044	0.690	68.46	35.00	0.700	70.00	
35.00	0.700	75.00	1594.98	637.99	15.47	-0.13534	0.00040	0.686	73.70	35.00	0.700	75.00	
35.01	0.700	78.00	1634.33	653.73	15.08	-0.12242	0.00028	0.684	76.96	35.00	0.700	78.00	
35.01	0.700	81.00	1685.14	674.06	15.21	-0.13381	0.00024	0.684	80.10	35.00	0.700	81.00	
35.00	0.700	84.00	1740.05	696.02	15.77	-0.13493	0.00024	0.684	83.26	35.00	0.700	84.00	
35.00	0.700	86.00	1759.48	703.79	15.65	-0.11895	0.00009	0.684	85.42	35.00	0.700	86.00	
35.00	0.700	88.00	1775.91	710.36	15.63	-0.14067	0.00003	0.685	87.51	35.00	0.700	88.00	
34.99	0.700	90.00	1782.44	712.97	15.85	-0.16142	-0.00003	0.685	89.58	35.00	0.700	90.00	
35.00	0.700	92.00	1775.02	710.01	15.80	-0.14721	-0.00007	0.686	91.65	35.00	0.700	92.00	
35.00	0.700	94.00	1755.02	702.01	15.57	-0.07462	-0.00005	0.687	93.70	35.00	0.700	94.00	
35.00	0.700	96.00	1734.41	693.77	15.26	-0.07890	-0.00008	0.688	95.74	35.00	0.700	96.00	
35.00	0.700	99.00	1692.46	676.98	15.23	-0.19644	0.00004	0.690	98.71	35.00	0.700	99.00	
35.00	0.700	102.00	1642.25	656.90	14.84	-0.14324	0.00005	0.692	101.71	35.00	0.700	102.00	
35.00	0.700	105.00	1601.43	640.57	14.90	-0.10993	0.00009	0.694	104.68	35.00	0.700	105.00	
35.00	0.700	110.00	1552.86	621.15	15.67	-0.11602	0.00034	0.696	109.51	35.00	0.700	110.00	
35.00	0.700	115.00	1512.11	604.84	16.28	-0.17116	0.00042	0.698	114.41	35.00	0.700	115.00	
35.00	0.700	120.00	1477.97	591.19	16.38	-0.13692	0.00034	0.700	119.33	35.00	0.700	120.00	
35.00	0.700	125.00	1451.65	580.66	16.87	-0.14022	0.00040	0.702	124.25	35.00	0.700	125.00	
34.99	0.700	130.00	1433.75	573.50	17.56	-0.12176	0.00054	0.702	129.20	35.00	0.700	130.00	
35.00	0.700	135.00	1414.58	565.83	17.83	-0.18739	0.00055	0.703	134.18	35.00	0.700	135.00	
35.00	0.699	140.00	1399.05	559.62	17.87	-0.08267	0.00047	0.702	139.17	35.00	0.700	140.00	
35.00	0.700	145.00	1389.02	555.61	18.21	-0.13838	0.00041	0.701	144.21	35.00	0.700	145.00	
34.99	0.699	150.00	1383.84	553.54	18.58	-0.08501	0.00049	0.700	149.25	35.00	0.700	150.00	
34.99	0.701	155.00	1377.57	551.03	18.45	-0.11806	0.00043	0.700	154.28	35.00	0.700	155.00	
35.00	0.700	160.00	1369.40	547.76	18.75	-0.03778	0.00025	0.702	159.37	35.00	0.700	160.00	
35.00	0.700	165.00	1364.45	545.78	18.80	-0.03969	0.00034	0.703	164.45	35.00	0.700	165.00	
35.00	0.700	170.00	1356.51	542.60	18.51	-0.00605	-0.00006	0.703	169.57	35.00	0.700	170.00	
35.00	0.700	175.00	1356.02	542.41	18.64	0.04939	-0.00012	0.703	174.75	35.00	0.700	175.00	
35.00	0.700	180.00	1360.62	544.25	19.35	-0.06733	0.00011	0.703	179.95	35.00	0.700	180.00	
35.00	0.700	185.00	1351.90	540.76	18.39	0.02824	-0.00008	0.704	185.12	35.00	0.700	185.00	
35.00	0.700	190.00	1354.50	541.80	18.56	-0.01817	0.00013	0.705	190.29	35.00	0.700	190.00	
35.00	0.700	195.00	1354.97	541.99	18.44	-0.01533	0.00023	0.707	195.47	35.00	0.700	195.00	
34.99	0.700	200.00	1359.40	543.76	18.72	-0.08592	0.00052	0.710	200.54	35.00	0.700	200.00	
35.00	0.700	205.00	1367.21	546.88	18.68	-0.09138	0.00063	0.712	205.59	35.00	0.700	205.00	
35.00	0.700	210.00	1372.52	549.01	18.66	-0.11703	0.00070	0.715	210.59	35.00	0.700	210.00	
35.00	0.700	215.00	1376.40	550.56	18.08	-0.14236	0.00072	0.718	215.52	35.00	0.700	215.00	
35.00	0.700	220.00	1389.01	555.60	18.28	-0.14205	0.00084	0.720	220.33	35.00	0.700	220.00	
35.00	0.700	225.00	1398.34	559.34	17.52	-0.14731	0.00085	0.721	225.12	35.00	0.700	225.00	
35.00	0.700	230.00	1414.13	565.65	17.05	-0.20645	0.00083	0.722	229.91	35.00	0.700	230.00	
35.00	0.700	235.00	1439.90	575.96	17.19	-0.17552	0.00087	0.722	234.68	35.00	0.700	235.00	
35.00	0.700	240.00	1463.80	585.52	16.35	-0.12114	0.00075	0.721	239.48	35.00	0.700	240.00	
